EN (EV) 1.1,DATA (B) 0.1
.767,0.0026
.786,0.0033
.807,0.0051
.826,0.0072
.846,0.0108
.866,0.0143
.886,0.0202
.906,0.0287
.925,0.0384
.945,0.0532
.965,0.0801
.975,0.0893
.985,0.1010
.994,0.1160
1.005,0.1520
1.016,0.1640
1.025,0.1890
1.03,0.2090
1.046,0.4610
1.05,0.8500
1.052,2.0300
1.053,4.5300
1.054,8.7700
1.055,4.5400
1.056,2.0400
1.058,0.8800
1.062,0.5560
1.078,0.4950
1.08,0.4810
1.087,0.4660
1.098,0.4830
1.112,0.4850
1.122,0.5000
1.132,0.5610
1.142,0.5980
1.152,0.6140
1.162,0.6400
1.172,0.6640
1.182,0.6810
1.192,0.7400
1.202,0.7490
1.212,0.7840
1.222,0.7950
1.232,0.7960
1.242,0.8340
1.251,0.8680
1.261,0.8690
1.271,0.8660
1.281,0.9310
1.291,0.8870
1.301,0.9410
1.303,0.9180
1.305,0.9300
1.307,0.9500
1.309,0.9580
1.311,0.9900
1.333,2.2100
1.334,4.2600
1.335,10.8000
1.336,48.2000
1.337,10.9000
1.338,4.2700
1.339,2.2200
1.365,1.1400
1.377,1.1300
1.389,1.1200
1.4,1.0900
1.41,1.1100
1.42,1.1600
1.431,1.2100
1.441,1.1900
1.45,1.2200
1.461,1.2900
1.471,1.2900
1.48,1.3100
1.49,1.3100
1.5,1.3700
1.51,1.4200
1.52,1.4400
1.53,1.5700
1.541,1.6700
1.55,1.6200
1.56,1.7500
1.585,2.9000
1.587,3.2000
1.588,4.3000
1.589,6.2500
1.59,10.5000
1.591,6.2600
1.592,4.3300
1.593,3.3200
1.595,3.0200
1.609,2.1200
1.619,2.1700
1.629,2.2300
1.639,2.2900
1.649,2.3800
1.66,2.4500
1.67,2.7500
1.68,2.8500
1.69,2.9500
1.699,3.2400
1.709,3.3400
1.719,3.7300
1.73,4.1100
1.74,4.3000
1.749,4.3700
1.759,4.4200
1.769,4.8100
1.779,4.9800
1.789,5.2600
1.799,5.4800
1.808,5.6600
1.818,5.9800
1.828,6.4200
1.839,7.3300
1.849,7.8700
1.859,8.3300
1.869,8.7700
1.879,9.5000
1.889,10.1000
1.899,10.7000
1.909,11.4000
1.918,12.3000
1.928,13.7000
1.938,14.8000
1.948,15.8000
1.958,17.3000
1.968,18.8000
1.978,20.5000
1.988,22.6000
1.998,24.6000
2.009,28.0000
2.019,30.6000
2.028,33.6000
2.038,37.0000
2.048,40.3000
2.057,43.1000
2.067,44.2000
2.077,44.5000
2.087,48.5000
2.097,45.2000
2.106,41.2000
2.116,39.5000
2.126,38.2000
2.136,37.4000
2.146,37.5000
2.156,39.8000
2.167,42.8000
2.177,47.0000
2.187,53.0000
2.197,59.9000
2.207,66.4000
2.217,75.2000
2.227,75.3000
2.236,74.1000
2.245,73.3000
2.255,67.7000
2.265,66.2000
2.275,59.1000
2.285,56.0000
2.295,55.1000
2.305,53.8000
2.315,53.7000
2.325,52.9000
2.335,54.3000
2.346,56.5000
2.355,59.0000
2.365,63.3000
2.375,66.4000
2.385,67.5000
2.395,66.1000
2.405,65.3000
2.414,59.8000
2.424,53.3000
2.434,45.6000
2.444,38.6000
2.454,34.5000
2.464,32.3000
2.473,28.6000
2.483,26.2000
2.493,24.7000
2.503,23.1000
2.513,21.7000
2.524,21.0000
2.534,20.5000
2.544,20.7000
2.554,21.1000
2.565,24.7000
2.576,38.3000
2.586,51.1000
2.595,46.2000
2.602,32.1000
2.611,24.9000
2.621,21.5000
2.632,20.4000
2.643,22.7000
2.657,51.8000
2.666,52.6000
2.673,39.6000
2.681,24.1000
2.69,21.1000
2.701,19.7000
2.712,19.6000
2.723,21.5000
2.735,35.5000
2.745,47.5000
2.754,41.9000
2.762,31.2000
2.772,45.9000
2.787,108.0000
2.792,115.0000
2.796,108.0000
2.801,60.1000
2.808,30.0000
2.818,22.6000
2.83,19.7000
2.841,18.0000
2.851,17.1000
2.862,16.7000
2.872,16.5000
2.882,16.5000
2.892,17.0000
2.902,17.0000
2.911,17.3000
2.921,17.6000
2.931,18.1000
2.941,18.7000
2.951,19.8000
2.962,21.1000
2.972,22.1000
2.982,24.4000
2.992,27.6000
3.002,31.9000
3.012,37.3000
3.021,41.6000
3.031,45.8000
3.041,47.6000
3.051,46.1000
3.06,43.8000
3.07,41.2000
3.08,38.8000
3.09,37.4000
3.1,37.3000
3.111,36.9000
3.121,37.0000
3.13,37.9000
3.14,39.2000
3.15,40.4000
3.16,42.3000
3.17,44.4000
3.18,47.2000
3.19,52.4000
3.2,56.9000
3.21,61.2000
3.22,67.0000
3.23,72.1000
3.239,78.2000
3.249,85.8000
3.259,91.9000
3.269,99.0000
3.279,104.0000
3.289,110.0000
3.299,116.0000
3.309,107.0000
3.319,103.0000
3.329,93.4000
3.338,84.1000
3.348,79.7000
3.358,69.9000
3.368,68.9000
3.378,68.8000
3.388,76.4000
3.399,88.6000
3.409,85.6000
3.418,68.8000
3.427,48.0000
3.436,34.7000
3.446,25.7000
3.457,20.7000
3.466,17.1000
3.476,14.2000
3.486,12.2000
3.497,10.6000
3.507,9.1800
3.517,7.9800
3.527,7.0900
3.537,6.3600
3.547,5.8000
3.557,5.2100
3.567,4.7100
3.576,4.1000
3.586,3.6000
3.596,3.1900
3.606,2.8900
3.618,4.5500
3.63,10.2000
3.638,9.3400
3.645,5.8500
3.655,4.6300
3.666,4.3100
3.677,4.9700
3.691,19.1000
3.699,33.3000
3.706,19.4000
3.713,7.4400
3.722,4.1600
3.733,2.7500
3.744,2.3100
3.755,2.0300
3.765,1.7200
3.775,1.6000
3.786,1.5300
3.795,1.5000
3.805,1.4700
3.815,1.4200
3.825,1.3900
3.835,1.3600
3.845,1.3900
3.855,1.3700
3.865,1.4300
3.875,1.4700
3.885,1.5700
3.895,1.7100
3.905,1.8400
3.915,2.0100
3.925,2.2800
3.935,2.6100
3.945,2.9500
3.955,3.4300
3.965,4.0700
3.975,4.6200
3.985,5.1400
3.995,5.6200
4.005,6.2000
4.014,6.5500
4.024,7.0500
4.034,7.5900
4.044,8.8300
4.055,12.5000
4.065,20.2000
4.074,20.7000
4.083,14.8000
4.092,10.9000
4.102,8.8500
4.113,7.9600
4.122,7.2800
4.132,6.8100
4.142,6.6100
4.152,6.3700
4.162,6.2000
4.172,6.1900
4.183,6.1000
4.193,6.0300
4.203,6.0700
4.213,6.1700
4.223,6.2300
4.232,6.4300
4.242,6.5900
4.252,6.8600
4.262,7.1500
4.272,7.7000
4.282,8.5500
4.292,9.7000
4.302,11.0000
4.313,13.7000
4.323,18.1000
4.333,26.7000
4.343,43.3000
4.353,71.7000
4.362,89.8000
4.371,76.0000
4.38,49.6000
4.389,31.7000
4.399,22.3000
4.41,16.9000
4.42,13.7000
4.43,12.1000
4.441,11.4000
4.451,10.1000
4.459,7.7000
4.469,6.5900
4.48,6.4700
4.49,7.0500
4.5,7.5100
4.51,7.9900
4.521,10.1000
4.531,10.9000
4.541,17.1000
4.549,55.1000
4.554,80.7000
4.558,89.6000
4.561,76.2000
4.564,57.7000
4.568,45.0000
4.578,37.1000
4.588,27.4000
4.598,21.6000
4.609,20.1000
4.619,20.2000
4.629,21.0000
4.639,22.5000
4.649,24.2000
4.659,25.9000
4.67,28.1000
4.679,29.3000
4.688,29.9000
4.698,30.3000
4.708,29.8000
4.718,30.0000
4.728,29.8000
4.738,29.6000
4.748,30.1000
4.758,30.6000
4.768,31.0000
4.778,31.3000
4.787,29.8000
4.797,29.0000
4.807,27.0000
4.817,25.5000
4.827,24.9000
4.837,24.8000
4.848,25.8000
4.858,27.2000
4.868,29.6000
4.878,32.9000
4.888,37.8000
4.897,44.2000
4.907,53.0000
4.917,64.0000
4.927,80.7000
4.937,98.7000
4.947,121.0000
4.957,129.0000
4.967,124.0000
4.976,110.0000
4.986,95.8000
4.996,90.2000
5.006,92.4000
5.016,92.2748
5.026,94.0267
5.036,96.9674
5.046,100.5824
5.056,106.1656
5.066,110.8047
5.076,115.4768
5.086,120.1250
5.096,126.6898
5.106,132.2794
5.115,138.7505
5.125,137.0440
5.135,147.7846
5.145,149.5696
5.155,147.1688
5.165,145.0671
5.175,141.4746
5.185,138.0837
5.195,133.8022
5.205,130.4679
5.215,126.3567
5.224,122.0995
5.234,119.8616
5.244,117.6822
5.254,116.3519
5.264,123.2374
5.275,164.3746
5.284,185.7637
5.294,148.5054
5.303,126.1544
5.314,121.6088
5.324,121.9713
5.333,126.3855
5.343,133.9266
5.353,141.4295
5.363,152.8564
5.373,166.5929
5.383,177.1018
5.393,186.7507
5.403,190.0928
5.413,187.1837
5.423,184.3007
5.433,182.2190
5.443,185.5706
5.452,193.5918
5.462,195.3725
5.472,184.1110
5.482,154.5542
5.492,132.0256
5.502,114.9454
5.512,102.5109
5.522,93.1683
5.532,86.1414
5.542,80.6588
5.552,75.9565
5.561,72.4959
5.571,70.4581
5.581,68.7306
5.591,67.9074
5.601,67.9077
5.611,68.1325
5.621,69.6172
5.631,71.9104
5.641,73.7535
5.651,78.7555
5.662,84.4569
5.671,93.1034
5.681,103.8963
5.691,119.0312
5.701,132.6527
5.711,148.4084
5.721,164.8342
5.731,179.0288
5.74,183.8028
5.75,184.9190
5.76,181.7084
5.77,176.3530
5.779,168.8926
5.789,163.5829
5.799,159.7266
5.809,156.6010
5.819,155.6302
5.829,156.0907
5.839,156.5520
5.85,159.1213
5.86,163.1280
5.87,167.1251
5.88,172.5263
5.889,187.1199
5.899,205.1716
5.909,243.5895
5.919,273.4623
5.929,273.0675
5.939,256.5554
5.939,281.0894
5.948,254.1290
5.958,227.9073
5.968,189.8927
5.978,177.0837
5.988,158.7420
5.997,145.3380
6.007,136.1173
6.018,135.9207
6.028,144.0552
6.038,148.0206
6.048,162.3396
6.058,204.2219
6.068,283.2123
6.079,388.1166
6.088,431.6847
6.098,387.9104
6.106,319.6345
6.116,273.3545
6.126,244.2937
6.136,213.2529
6.146,191.1608
6.157,180.6808
6.167,173.7460
6.177,175.8013
6.187,171.9049
6.197,176.7530
6.207,177.0133
6.216,179.3269
6.226,175.6308
6.236,174.6035
6.246,170.9656
6.256,175.2364
6.266,179.4958
6.276,185.5165
6.286,196.2923
6.296,204.4256
6.306,211.8915
6.316,226.4808
6.325,230.7019
6.335,227.7662
6.345,231.3092
6.355,221.9467
6.365,217.1284
6.375,207.1835
6.385,197.9143
6.395,189.9595
6.405,174.9799
6.415,166.3624
6.425,161.9500
6.435,155.8275
6.444,153.6066
6.454,153.9179
6.464,154.8951
6.474,154.0134
6.484,150.6173
6.494,150.9981
6.504,152.0145
6.514,152.4139
6.524,152.8175
6.534,151.9800
6.544,149.1974
6.553,151.4996
6.563,155.0205
6.573,149.2477
6.583,150.2974
6.593,151.3492
6.603,151.7854
6.613,150.9920
6.623,149.5889
6.633,151.2671
6.643,153.5593
6.653,154.6232
6.662,155.7043
6.672,158.6069
6.682,157.8297
6.692,161.3341
6.702,163.6129
6.712,166.4994
6.722,169.9919
6.732,174.6975
6.752,186.5191
6.771,199.5375
6.791,213.7126
6.811,236.9111
6.831,264.2607
6.851,282.4937
6.871,281.4341
6.89,258.1935
6.91,249.4007
6.93,244.8339
6.95,261.2080
6.97,254.8618
6.989,260.4795
7.009,261.3095
7.029,265.7107
7.049,249.9237
7.069,235.9631
7.089,247.5053
7.098,270.4453
7.109,314.0233
7.109,299.8302
7.118,268.9300
7.128,242.1854
7.148,233.6356
7.168,225.1118
7.188,226.6191
7.207,219.3206
7.227,216.7296
7.247,219.4284
7.267,220.3680
7.287,223.0664
7.307,240.3853
7.326,255.9330
7.346,257.4333
7.366,264.7664
7.386,259.2730
7.406,265.4358
7.427,281.4649
7.445,291.6976
7.465,290.2810
7.485,295.2521
7.505,288.6274
7.525,288.3883
7.544,284.1147
7.564,260.1819
7.584,249.0008
7.605,248.2218
7.625,260.7244
7.645,287.6211
7.664,319.6778
7.684,352.8324
7.704,391.1204
7.724,397.1723
7.744,381.3943
7.763,366.2280
7.783,352.2205
7.803,339.3812
7.823,341.4579
7.843,340.6732
7.863,342.7538
7.882,355.7112
7.902,365.7888
7.922,333.0178
7.941,286.0229
7.962,261.3201